Wavelength	PL390-MAO-Cr-Mau8
nm	Counts
449.342	1005
449.472	1013
449.602	1013
449.732	1015
449.862	1010
449.992	1004
450.122	1018
450.252	1014
450.382	1014
450.512	1015
450.642	1013
450.772	1016
450.902	1016
451.032	1021
451.162	1006
451.292	1016
451.422	1005
451.552	1012
451.682	1015
451.812	1010
451.942	1015
452.071	1011
452.201	1011
452.331	1005
452.461	1010
452.591	1019
452.721	1006
452.851	1008
452.981	1018
453.111	1008
453.241	1020
453.371	1014
453.501	1010
453.63	1007
453.76	1005
453.89	1010
454.02	1009
454.15	1009
454.28	1009
454.41	1008
454.539	1009
454.669	1013
454.799	1015
454.929	1012
455.059	1011
455.189	1009
455.318	1013
455.448	1013
455.578	1010
455.708	1009
455.838	1008
455.968	1011
456.097	1006
456.227	1012
456.357	1009
456.487	1013
456.617	1008
456.746	1013
456.876	1019
457.006	1006
457.136	1010
457.265	1012
457.395	1008
457.525	1010
457.655	1010
457.784	1012
457.914	1015
458.044	1006
458.174	1011
458.303	1012
458.433	1012
458.563	1010
458.692	1012
458.822	1009
458.952	1013
459.081	1004
459.211	1012
459.341	1018
459.47	1012
459.6	1017
459.73	1013
459.86	1015
459.989	1014
460.119	1008
460.248	1012
460.378	1013
460.508	1005
460.637	1012
460.767	1012
460.897	1018
461.026	1011
461.156	1016
461.286	1012
461.415	1008
461.545	1011
461.674	1008
461.804	1008
461.933	1015
462.063	1009
462.193	1011
462.322	1010
462.452	1017
462.581	1016
462.711	1018
462.84	1013
462.97	1009
463.1	1008
463.229	1012
463.359	1013
463.488	1010
463.618	1019
463.747	1005
463.877	1009
464.006	1015
464.136	1015
464.265	1017
464.395	1020
464.524	1005
464.654	1011
464.783	1020
464.913	1007
465.042	1015
465.172	1012
465.301	1011
465.431	1012
465.56	1013
465.69	1011
465.819	1016
465.948	1017
466.078	1015
466.207	1013
466.337	1012
466.466	1012
466.596	1019
466.725	1013
466.854	1009
466.984	1018
467.113	1019
467.243	1012
467.372	1019
467.501	1016
467.631	1013
467.76	1013
467.889	1015
468.019	1014
468.148	1012
468.278	1016
468.407	1011
468.536	1013
468.666	1014
468.795	1012
468.924	1010
469.054	1021
469.183	1012
469.312	1009
469.442	1015
469.571	1014
469.7	1012
469.829	1017
469.959	1011
470.088	1010
470.217	1011
470.347	1014
470.476	1013
470.605	1015
470.734	1013
470.864	1011
470.993	1012
471.122	1020
471.251	1010
471.381	1015
471.51	1012
471.639	1017
471.768	1013
471.898	1019
472.027	1018
472.156	1015
472.285	1016
472.414	1012
472.544	1018
472.673	1017
472.802	1015
472.931	1012
473.06	1015
473.189	1011
473.319	1008
473.448	1016
473.577	1018
473.706	1014
473.835	1011
473.964	1016
474.094	1010
474.223	1017
474.352	1020
474.481	1010
474.61	1013
474.739	1012
474.868	1013
474.997	1017
475.126	1014
475.256	1011
475.385	1014
475.514	1014
475.643	1014
475.772	1018
475.901	1013
476.03	1014
476.159	1015
476.288	1012
476.417	1011
476.546	1012
476.675	1019
476.804	1016
476.933	1014
477.062	1019
477.191	1010
477.32	1008
477.449	1015
477.578	1015
477.707	1020
477.836	1012
477.965	1012
478.094	1016
478.223	1019
478.352	1018
478.481	1014
478.61	1016
478.739	1013
478.868	1012
478.997	1019
479.126	1023
479.255	1015
479.384	1010
479.513	1014
479.642	1027
479.771	1014
479.9	1011
480.028	1014
480.157	1021
480.286	1011
480.415	1008
480.544	1015
480.673	1022
480.802	1014
480.931	1015
481.06	1016
481.188	1009
481.317	1015
481.446	1015
481.575	1017
481.704	1023
481.833	1017
481.961	1011
482.09	1017
482.219	1016
482.348	1014
482.477	1015
482.606	1012
482.734	1014
482.863	1015
482.992	1020
483.121	1017
483.249	1022
483.378	1021
483.507	1014
483.636	1021
483.765	1021
483.893	1018
484.022	1015
484.151	1018
484.28	1017
484.408	1021
484.537	1018
484.666	1011
484.794	1010
484.923	1016
485.052	1014
485.181	1018
485.309	1016
485.438	1014
485.567	1012
485.695	1021
485.824	1020
485.953	1012
486.081	1019
486.21	1022
486.339	1012
486.467	1023
486.596	1015
486.725	1024
486.853	1019
486.982	1014
487.11	1016
487.239	1016
487.368	1018
487.496	1022
487.625	1020
487.754	1015
487.882	1016
488.011	1013
488.139	1016
488.268	1016
488.396	1016
488.525	1023
488.654	1013
488.782	1017
488.911	1016
489.039	1019
489.168	1015
489.296	1015
489.425	1018
489.553	1017
489.682	1022
489.81	1015
489.939	1016
490.067	1020
490.196	1014
490.324	1019
490.453	1016
490.581	1021
490.71	1020
490.838	1025
490.967	1018
491.095	1014
491.224	1015
491.352	1018
491.481	1017
491.609	1020
491.738	1017
491.866	1018
491.994	1017
492.123	1022
492.251	1015
492.38	1013
492.508	1017
492.636	1014
492.765	1020
492.893	1015
493.022	1022
493.15	1017
493.278	1011
493.407	1012
493.535	1014
493.663	1016
493.792	1015
493.92	1013
494.049	1015
494.177	1020
494.305	1017
494.434	1018
494.562	1019
494.69	1013
494.818	1016
494.947	1017
495.075	1019
495.203	1017
495.332	1018
495.46	1020
495.588	1027
495.716	1023
495.845	1016
495.973	1021
496.101	1021
496.23	1019
496.358	1012
496.486	1017
496.614	1019
496.742	1024
496.871	1016
496.999	1017
497.127	1018
497.255	1016
497.384	1021
497.512	1015
497.64	1027
497.768	1018
497.896	1016
498.024	1014
498.153	1017
498.281	1017
498.409	1017
498.537	1021
498.665	1017
498.793	1024
498.922	1015
499.05	1027
499.178	1019
499.306	1021
499.434	1023
499.562	1017
499.69	1027
499.818	1017
499.947	1023
500.075	1024
500.203	1023
500.331	1028
500.459	1017
500.587	1022
500.715	1018
500.843	1015
500.971	1021
501.099	1013
501.227	1020
501.355	1022
501.483	1026
501.611	1022
501.739	1016
501.867	1017
501.995	1017
502.123	1025
502.251	1020
502.379	1014
502.507	1021
502.635	1017
502.763	1019
502.891	1011
503.019	1021
503.147	1016
503.275	1017
503.403	1024
503.531	1026
503.659	1022
503.787	1018
503.915	1022
504.043	1014
504.171	1026
504.299	1019
504.426	1020
504.554	1021
504.682	1022
504.81	1026
504.938	1023
505.066	1019
505.194	1024
505.322	1024
505.449	1019
505.577	1024
505.705	1016
505.833	1020
505.961	1026
506.089	1021
506.217	1020
506.344	1027
506.472	1020
506.6	1020
506.728	1013
506.856	1011
506.983	1026
507.111	1014
507.239	1022
507.367	1022
507.495	1015
507.622	1016
507.75	1019
507.878	1023
508.006	1024
508.133	1025
508.261	1023
508.389	1020
508.516	1020
508.644	1012
508.772	1014
508.9	1026
509.027	1022
509.155	1022
509.283	1024
509.41	1017
509.538	1022
509.666	1023
509.793	1020
509.921	1023
510.049	1025
510.176	1020
510.304	1020
510.432	1026
510.559	1022
510.687	1018
510.815	1020
510.942	1018
511.07	1020
511.197	1024
511.325	1021
511.453	1023
511.58	1019
511.708	1028
511.835	1022
511.963	1019
512.091	1021
512.218	1021
512.346	1015
512.473	1019
512.601	1020
512.728	1025
512.856	1022
512.983	1018
513.111	1023
513.238	1026
513.366	1022
513.494	1025
513.621	1015
513.749	1024
513.876	1022
514.003	1017
514.131	1020
514.258	1023
514.386	1027
514.513	1019
514.641	1022
514.768	1026
514.896	1020
515.023	1026
515.151	1028
515.278	1024
515.405	1020
515.533	1018
515.66	1020
515.788	1022
515.915	1028
516.042	1022
516.17	1023
516.297	1018
516.425	1023
516.552	1015
516.679	1024
516.807	1023
516.934	1024
517.061	1020
517.189	1013
517.316	1017
517.443	1015
517.571	1010
517.698	1025
517.825	1026
517.953	1017
518.08	1014
518.207	1019
518.335	1020
518.462	1024
518.589	1021
518.716	1021
518.844	1020
518.971	1027
519.098	1021
519.226	1014
519.353	1020
519.48	1025
519.607	1022
519.734	1023
519.862	1026
519.989	1025
520.116	1023
520.243	1024
520.371	1027
520.498	1016
520.625	1023
520.752	1021
520.879	1026
521.006	1020
521.134	1024
521.261	1020
521.388	1022
521.515	1024
521.642	1023
521.769	1016
521.896	1024
522.024	1021
522.151	1024
522.278	1020
522.405	1024
522.532	1020
522.659	1026
522.786	1032
522.913	1024
523.04	1023
523.167	1021
523.295	1017
523.422	1024
523.549	1021
523.676	1025
523.803	1019
523.93	1024
524.057	1014
524.184	1028
524.311	1021
524.438	1017
524.565	1017
524.692	1027
524.819	1023
524.946	1022
525.073	1020
525.2	1023
525.327	1024
525.454	1026
525.581	1026
525.708	1028
525.835	1028
525.962	1023
526.088	1025
526.215	1023
526.342	1021
526.469	1025
526.596	1025
526.723	1027
526.85	1021
526.977	1021
527.104	1024
527.231	1018
527.358	1022
527.484	1026
527.611	1026
527.738	1024
527.865	1024
527.992	1020
528.119	1026
528.246	1026
528.372	1023
528.499	1026
528.626	1016
528.753	1027
528.88	1019
529.006	1019
529.133	1018
529.26	1016
529.387	1031
529.514	1021
529.64	1014
529.767	1029
529.894	1020
530.021	1030
530.147	1023
530.274	1021
530.401	1024
530.528	1024
530.654	1022
530.781	1024
530.908	1015
531.034	1026
531.161	1029
531.288	1029
531.414	1027
531.541	1024
531.668	1030
531.795	1026
531.921	1023
532.048	1026
532.174	1017
532.301	1028
532.428	1024
532.554	1018
532.681	1027
532.808	1014
532.934	1019
533.061	1024
533.187	1029
533.314	1013
533.441	1030
533.567	1028
533.694	1025
533.82	1019
533.947	1025
534.074	1024
534.2	1025
534.327	1026
534.453	1024
534.58	1022
534.706	1026
534.833	1030
534.959	1020
535.086	1025
535.212	1025
535.339	1024
535.465	1021
535.592	1024
535.718	1028
535.845	1028
535.971	1026
536.098	1022
536.224	1024
536.351	1021
536.477	1033
536.604	1019
536.73	1021
536.856	1027
536.983	1027
537.109	1024
537.236	1026
537.362	1024
537.488	1025
537.615	1016
537.741	1024
537.868	1028
537.994	1022
538.12	1024
538.247	1027
538.373	1019
538.499	1031
538.626	1020
538.752	1025
538.878	1021
539.005	1024
539.131	1024
539.257	1022
539.384	1019
539.51	1026
539.636	1026
539.763	1026
539.889	1019
540.015	1020
540.141	1026
540.268	1031
540.394	1022
540.52	1017
540.646	1024
540.773	1023
540.899	1022
541.025	1025
541.151	1022
541.278	1015
541.404	1023
541.53	1024
541.656	1020
541.782	1022
541.909	1024
542.035	1024
542.161	1027
542.287	1024
542.413	1025
542.539	1024
542.665	1024
542.792	1025
542.918	1026
543.044	1029
543.17	1023
543.296	1028
543.422	1027
543.548	1026
543.674	1026
543.801	1025
543.927	1024
544.053	1024
544.179	1025
544.305	1021
544.431	1021
544.557	1027
544.683	1021
544.809	1021
544.935	1031
545.061	1020
545.187	1022
545.313	1028
545.439	1023
545.565	1024
545.691	1026
545.817	1027
545.943	1024
546.069	1024
546.195	1024
546.321	1031
546.447	1026
546.573	1031
546.699	1029
546.825	1018
546.951	1019
547.077	1035
547.203	1027
547.329	1023
547.454	1023
547.58	1018
547.706	1024
547.832	1021
547.958	1027
548.084	1027
548.21	1020
548.336	1033
548.462	1021
548.587	1025
548.713	1027
548.839	1024
548.965	1018
549.091	1014
549.217	1030
549.342	1025
549.468	1020
549.594	1022
549.72	1021
549.846	1027
549.971	1027
550.097	1022
550.223	1023
550.349	1021
550.474	1028
550.6	1030
550.726	1025
550.852	1018
550.977	1023
551.103	1023
551.229	1022
551.355	1020
551.48	1025
551.606	1031
551.732	1023
551.857	1024
551.983	1016
552.109	1020
552.234	1022
552.36	1021
552.486	1028
552.611	1021
552.737	1022
552.863	1018
552.988	1024
553.114	1023
553.24	1021
553.365	1023
553.491	1025
553.616	1021
553.742	1031
553.868	1023
553.993	1027
554.119	1028
554.244	1022
554.37	1033
554.495	1027
554.621	1019
554.746	1022
554.872	1018
554.998	1030
555.123	1027
555.249	1024
555.374	1024
555.5	1026
555.625	1025
555.751	1018
555.876	1024
556.002	1024
556.127	1012
556.252	1025
556.378	1029
556.503	1024
556.629	1022
556.754	1025
556.88	1029
557.005	1025
557.131	1027
557.256	1019
557.381	1027
557.507	1027
557.632	1033
557.758	1013
557.883	1024
558.008	1028
558.134	1020
558.259	1021
558.384	1020
558.51	1026
558.635	1025
558.76	1029
558.886	1024
559.011	1028
559.136	1017
559.262	1023
559.387	1016
559.512	1018
559.638	1028
559.763	1027
559.888	1021
560.013	1019
560.139	1018
560.264	1019
560.389	1035
560.514	1024
560.64	1023
560.765	1026
560.89	1017
561.015	1032
561.141	1019
561.266	1021
561.391	1032
561.516	1028
561.641	1016
561.767	1022
561.892	1025
562.017	1022
562.142	1016
562.267	1026
562.392	1022
562.518	1021
562.643	1021
562.768	1023
562.893	1024
563.018	1027
563.143	1027
563.268	1029
563.393	1031
563.518	1024
563.644	1025
563.769	1024
563.894	1020
564.019	1029
564.144	1028
564.269	1026
564.394	1021
564.519	1032
564.644	1020
564.769	1028
564.894	1020
565.019	1024
565.144	1028
565.269	1024
565.394	1030
565.519	1018
565.644	1024
565.769	1016
565.894	1034
566.019	1019
566.144	1029
566.269	1028
566.394	1030
566.519	1031
566.644	1042
566.769	1024
566.893	1025
567.018	1022
567.143	1028
567.268	1021
567.393	1021
567.518	1025
567.643	1024
567.768	1026
567.893	1031
568.017	1024
568.142	1029
568.267	1016
568.392	1026
568.517	1026
568.642	1024
568.766	1027
568.891	1022
569.016	1024
569.141	1021
569.266	1031
569.39	1019
569.515	1022
569.64	1024
569.765	1029
569.889	1020
570.014	1022
570.139	1019
570.264	1022
570.388	1028
570.513	1020
570.638	1023
570.762	1027
570.887	1028
571.012	1030
571.137	1024
571.261	1024
571.386	1028
571.511	1027
571.635	1018
571.76	1023
571.885	1018
572.009	1024
572.134	1022
572.258	1016
572.383	1023
572.508	1021
572.632	1026
572.757	1024
572.881	1025
573.006	1024
573.131	1031
573.255	1024
573.38	1019
573.504	1031
573.629	1018
573.753	1026
573.878	1024
574.003	1017
574.127	1029
574.252	1027
574.376	1026
574.501	1024
574.625	1026
574.75	1022
574.874	1026
574.999	1024
575.123	1024
575.248	1023
575.372	1022
575.496	1027
575.621	1024
575.745	1024
575.87	1023
575.994	1024
576.119	1024
576.243	1027
576.367	1026
576.492	1026
576.616	1029
576.741	1028
576.865	1026
576.989	1019
577.114	1025
577.238	1025
577.362	1026
577.487	1028
577.611	1024
577.735	1020
577.86	1025
577.984	1018
578.108	1022
578.233	1025
578.357	1027
578.481	1027
578.606	1021
578.73	1021
578.854	1020
578.978	1025
578.977	1018
579.106	1023
579.234	1021
579.362	1023
579.491	1024
579.619	1021
579.747	1030
579.875	1013
580.004	1025
580.132	1026
580.26	1020
580.388	1026
580.517	1018
580.645	1028
580.773	1026
580.901	1025
581.03	1022
581.158	1026
581.286	1023
581.414	1022
581.542	1025
581.671	1026
581.799	1018
581.927	1023
582.055	1028
582.183	1016
582.312	1029
582.44	1030
582.568	1030
582.696	1016
582.824	1024
582.952	1025
583.08	1025
583.209	1028
583.337	1022
583.465	1026
583.593	1025
583.721	1028
583.849	1028
583.977	1021
584.105	1023
584.233	1025
584.362	1027
584.49	1023
584.618	1019
584.746	1020
584.874	1027
585.002	1024
585.13	1026
585.258	1027
585.386	1026
585.514	1023
585.642	1026
585.77	1026
585.898	1025
586.026	1029
586.154	1023
586.282	1027
586.41	1028
586.538	1023
586.666	1022
586.794	1027
586.922	1029
587.05	1026
587.178	1024
587.306	1035
587.434	1028
587.562	1029
587.69	1031
587.818	1031
587.946	1040
588.074	1030
588.202	1028
588.33	1024
588.458	1026
588.586	1029
588.714	1028
588.842	1031
588.97	1032
589.097	1025
589.225	1026
589.353	1026
589.481	1032
589.609	1027
589.737	1037
589.865	1027
589.993	1029
590.121	1032
590.248	1027
590.376	1035
590.504	1035
590.632	1038
590.76	1030
590.888	1032
591.015	1035
591.143	1032
591.271	1029
591.399	1031
591.527	1032
591.655	1028
591.782	1035
591.91	1026
592.038	1029
592.166	1037
592.294	1031
592.421	1041
592.549	1031
592.677	1034
592.805	1031
592.932	1035
593.06	1034
593.188	1034
593.316	1030
593.443	1037
593.571	1033
593.699	1034
593.826	1044
593.954	1041
594.082	1040
594.21	1031
594.337	1038
594.465	1032
594.593	1035
594.72	1030
594.848	1043
594.976	1038
595.103	1038
595.231	1043
595.359	1045
595.486	1034
595.614	1042
595.742	1047
595.869	1042
595.997	1044
596.124	1046
596.252	1044
596.38	1041
596.507	1042
596.635	1038
596.763	1047
596.89	1043
597.018	1033
597.145	1042
597.273	1045
597.4	1044
597.528	1034
597.656	1035
597.783	1046
597.911	1043
598.038	1047
598.166	1039
598.293	1044
598.421	1043
598.548	1047
598.676	1052
598.803	1046
598.931	1049
599.058	1044
599.186	1049
599.313	1046
599.441	1041
599.568	1043
599.696	1053
599.823	1049
599.951	1047
600.078	1039
600.206	1053
600.333	1051
600.461	1062
600.588	1047
600.715	1053
600.843	1055
600.97	1049
601.098	1054
601.225	1049
601.353	1053
601.48	1049
601.607	1049
601.735	1053
601.862	1047
601.99	1044
602.117	1044
602.244	1048
602.372	1055
602.499	1054
602.626	1042
602.754	1049
602.881	1055
603.008	1054
603.136	1060
603.263	1049
603.39	1060
603.518	1054
603.645	1055
603.772	1058
603.9	1065
604.027	1058
604.154	1055
604.281	1060
604.409	1054
604.536	1055
604.663	1065
604.791	1059
604.918	1066
605.045	1054
605.172	1065
605.3	1065
605.427	1065
605.554	1058
605.681	1051
605.809	1065
605.936	1057
606.063	1071
606.19	1061
606.317	1061
606.445	1060
606.572	1069
606.699	1069
606.826	1065
606.953	1067
607.08	1066
607.208	1070
607.335	1074
607.462	1067
607.589	1068
607.716	1073
607.843	1074
607.97	1064
608.098	1069
608.225	1074
608.352	1071
608.479	1065
608.606	1067
608.733	1069
608.86	1070
608.987	1073
609.114	1074
609.241	1077
609.369	1064
609.496	1069
609.623	1069
609.75	1065
609.877	1079
610.004	1079
610.131	1075
610.258	1076
610.385	1073
610.512	1088
610.639	1068
610.766	1076
610.893	1089
611.02	1077
611.147	1078
611.274	1077
611.401	1074
611.528	1077
611.655	1083
611.782	1074
611.909	1094
612.036	1070
612.163	1083
612.29	1070
612.417	1077
612.543	1092
612.67	1093
612.797	1087
612.924	1086
613.051	1097
613.178	1088
613.305	1086
613.432	1093
613.559	1080
613.686	1090
613.813	1100
613.939	1083
614.066	1084
614.193	1092
614.32	1096
614.447	1100
614.574	1099
614.701	1089
614.827	1095
614.954	1103
615.081	1091
615.208	1092
615.335	1100
615.461	1100
615.588	1103
615.715	1111
615.842	1098
615.969	1111
616.095	1103
616.222	1120
616.349	1099
616.476	1098
616.602	1105
616.729	1109
616.856	1095
616.983	1120
617.109	1102
617.236	1092
617.363	1104
617.49	1114
617.616	1102
617.743	1116
617.87	1104
617.996	1113
618.123	1101
618.25	1110
618.376	1102
618.503	1108
618.63	1112
618.756	1124
618.883	1109
619.01	1113
619.136	1122
619.263	1131
619.39	1109
619.516	1118
619.643	1115
619.769	1131
619.896	1119
620.023	1128
620.149	1113
620.276	1116
620.402	1123
620.529	1133
620.656	1124
620.782	1129
620.909	1132
621.035	1120
621.162	1118
621.288	1117
621.415	1112
621.541	1121
621.668	1134
621.795	1128
621.921	1138
622.048	1114
622.174	1145
622.301	1122
622.427	1139
622.554	1141
622.68	1131
622.807	1142
622.933	1141
623.059	1141
623.186	1153
623.312	1125
623.439	1138
623.565	1137
623.692	1148
623.818	1146
623.945	1158
624.071	1149
624.197	1147
624.324	1135
624.45	1134
624.577	1137
624.703	1147
624.829	1136
624.956	1149
625.082	1165
625.209	1145
625.335	1156
625.461	1149
625.588	1146
625.714	1162
625.84	1160
625.967	1153
626.093	1168
626.219	1175
626.346	1176
626.472	1159
626.598	1168
626.725	1161
626.851	1174
626.977	1159
627.103	1172
627.23	1185
627.356	1167
627.482	1176
627.608	1156
627.735	1180
627.861	1172
627.987	1171
628.113	1167
628.24	1180
628.366	1178
628.492	1171
628.618	1173
628.745	1173
628.871	1179
628.997	1184
629.123	1188
629.249	1203
629.376	1192
629.502	1195
629.628	1184
629.754	1203
629.88	1196
630.006	1190
630.132	1189
630.259	1213
630.385	1206
630.511	1187
630.637	1209
630.763	1204
630.889	1212
631.015	1187
631.141	1192
631.268	1198
631.394	1208
631.52	1203
631.646	1202
631.772	1218
631.898	1211
