Wavelength	PL390-MAO-Cr-Mau11
nm	Counts
449.342	1019
449.472	1021
449.602	1018
449.732	1023
449.862	1028
449.992	1029
450.122	1028
450.252	1022
450.382	1025
450.512	1021
450.642	1022
450.772	1025
450.902	1028
451.032	1036
451.162	1023
451.292	1025
451.422	1026
451.552	1027
451.682	1021
451.812	1030
451.942	1027
452.071	1023
452.201	1027
452.331	1022
452.461	1029
452.591	1032
452.721	1017
452.851	1030
452.981	1024
453.111	1022
453.241	1022
453.371	1019
453.501	1022
453.63	1023
453.76	1025
453.89	1032
454.02	1023
454.15	1024
454.28	1019
454.41	1028
454.539	1022
454.669	1024
454.799	1020
454.929	1023
455.059	1020
455.189	1028
455.318	1027
455.448	1020
455.578	1023
455.708	1022
455.838	1022
455.968	1017
456.097	1022
456.227	1026
456.357	1025
456.487	1023
456.617	1019
456.746	1028
456.876	1025
457.006	1023
457.136	1029
457.265	1022
457.395	1018
457.525	1026
457.655	1024
457.784	1024
457.914	1029
458.044	1024
458.174	1024
458.303	1028
458.433	1027
458.563	1026
458.692	1025
458.822	1026
458.952	1022
459.081	1031
459.211	1028
459.341	1024
459.47	1028
459.6	1026
459.73	1027
459.86	1024
459.989	1028
460.119	1024
460.248	1024
460.378	1022
460.508	1016
460.637	1023
460.767	1023
460.897	1022
461.026	1026
461.156	1028
461.286	1024
461.415	1023
461.545	1020
461.674	1019
461.804	1030
461.933	1025
462.063	1029
462.193	1028
462.322	1028
462.452	1021
462.581	1028
462.711	1024
462.84	1026
462.97	1022
463.1	1028
463.229	1028
463.359	1028
463.488	1027
463.618	1033
463.747	1021
463.877	1029
464.006	1027
464.136	1021
464.265	1013
464.395	1026
464.524	1026
464.654	1030
464.783	1020
464.913	1027
465.042	1025
465.172	1021
465.301	1034
465.431	1030
465.56	1026
465.69	1022
465.819	1026
465.948	1026
466.078	1025
466.207	1028
466.337	1020
466.466	1021
466.596	1024
466.725	1021
466.854	1028
466.984	1024
467.113	1029
467.243	1023
467.372	1020
467.501	1029
467.631	1030
467.76	1027
467.889	1022
468.019	1026
468.148	1028
468.278	1021
468.407	1023
468.536	1026
468.666	1025
468.795	1024
468.924	1020
469.054	1031
469.183	1024
469.312	1028
469.442	1033
469.571	1030
469.7	1027
469.829	1031
469.959	1028
470.088	1035
470.217	1035
470.347	1031
470.476	1027
470.605	1027
470.734	1029
470.864	1024
470.993	1032
471.122	1028
471.251	1036
471.381	1021
471.51	1028
471.639	1032
471.768	1030
471.898	1031
472.027	1036
472.156	1038
472.285	1033
472.414	1024
472.544	1034
472.673	1029
472.802	1030
472.931	1028
473.06	1028
473.189	1024
473.319	1031
473.448	1024
473.577	1029
473.706	1026
473.835	1026
473.964	1031
474.094	1028
474.223	1033
474.352	1022
474.481	1029
474.61	1032
474.739	1019
474.868	1023
474.997	1037
475.126	1029
475.256	1027
475.385	1024
475.514	1027
475.643	1030
475.772	1020
475.901	1024
476.03	1037
476.159	1024
476.288	1030
476.417	1027
476.546	1027
476.675	1025
476.804	1023
476.933	1036
477.062	1024
477.191	1033
477.32	1030
477.449	1032
477.578	1027
477.707	1032
477.836	1028
477.965	1026
478.094	1029
478.223	1032
478.352	1036
478.481	1030
478.61	1029
478.739	1020
478.868	1031
478.997	1032
479.126	1034
479.255	1028
479.384	1033
479.513	1032
479.642	1027
479.771	1023
479.9	1033
480.028	1026
480.157	1023
480.286	1029
480.415	1027
480.544	1027
480.673	1024
480.802	1036
480.931	1038
481.06	1028
481.188	1029
481.317	1033
481.446	1034
481.575	1015
481.704	1035
481.833	1023
481.961	1024
482.09	1028
482.219	1036
482.348	1032
482.477	1028
482.606	1028
482.734	1035
482.863	1028
482.992	1026
483.121	1036
483.249	1040
483.378	1039
483.507	1027
483.636	1030
483.765	1040
483.893	1018
484.022	1038
484.151	1030
484.28	1027
484.408	1028
484.537	1031
484.666	1032
484.794	1029
484.923	1024
485.052	1031
485.181	1030
485.309	1031
485.438	1031
485.567	1035
485.695	1035
485.824	1036
485.953	1032
486.081	1031
486.21	1040
486.339	1028
486.467	1034
486.596	1029
486.725	1030
486.853	1042
486.982	1036
487.11	1028
487.239	1031
487.368	1036
487.496	1031
487.625	1041
487.754	1037
487.882	1032
488.011	1036
488.139	1023
488.268	1033
488.396	1041
488.525	1035
488.654	1024
488.782	1032
488.911	1031
489.039	1036
489.168	1028
489.296	1027
489.425	1032
489.553	1035
489.682	1042
489.81	1035
489.939	1035
490.067	1036
490.196	1037
490.324	1034
490.453	1034
490.581	1037
490.71	1037
490.838	1028
490.967	1038
491.095	1033
491.224	1038
491.352	1024
491.481	1039
491.609	1044
491.738	1031
491.866	1034
491.994	1028
492.123	1032
492.251	1031
492.38	1024
492.508	1037
492.636	1041
492.765	1034
492.893	1033
493.022	1031
493.15	1037
493.278	1038
493.407	1039
493.535	1041
493.663	1043
493.792	1043
493.92	1035
494.049	1037
494.177	1030
494.305	1039
494.434	1027
494.562	1033
494.69	1037
494.818	1032
494.947	1030
495.075	1033
495.203	1034
495.332	1025
495.46	1035
495.588	1039
495.716	1032
495.845	1040
495.973	1036
496.101	1035
496.23	1037
496.358	1038
496.486	1037
496.614	1037
496.742	1045
496.871	1039
496.999	1035
497.127	1039
497.255	1028
497.384	1035
497.512	1032
497.64	1045
497.768	1035
497.896	1032
498.024	1034
498.153	1037
498.281	1036
498.409	1036
498.537	1029
498.665	1035
498.793	1035
498.922	1028
499.05	1036
499.178	1031
499.306	1043
499.434	1032
499.562	1044
499.69	1034
499.818	1034
499.947	1037
500.075	1037
500.203	1034
500.331	1037
500.459	1050
500.587	1041
500.715	1037
500.843	1036
500.971	1031
501.099	1040
501.227	1030
501.355	1033
501.483	1027
501.611	1045
501.739	1033
501.867	1036
501.995	1043
502.123	1030
502.251	1033
502.379	1038
502.507	1043
502.635	1036
502.763	1051
502.891	1040
503.019	1039
503.147	1033
503.275	1042
503.403	1028
503.531	1043
503.659	1038
503.787	1042
503.915	1030
504.043	1046
504.171	1031
504.299	1039
504.426	1035
504.554	1033
504.682	1034
504.81	1032
504.938	1034
505.066	1037
505.194	1040
505.322	1034
505.449	1042
505.577	1040
505.705	1040
505.833	1044
505.961	1030
506.089	1038
506.217	1041
506.344	1033
506.472	1036
506.6	1035
506.728	1036
506.856	1035
506.983	1042
507.111	1043
507.239	1046
507.367	1032
507.495	1041
507.622	1039
507.75	1034
507.878	1038
508.006	1043
508.133	1031
508.261	1040
508.389	1037
508.516	1046
508.644	1028
508.772	1042
508.9	1037
509.027	1036
509.155	1041
509.283	1038
509.41	1033
509.538	1038
509.666	1031
509.793	1037
509.921	1038
510.049	1033
510.176	1039
510.304	1038
510.432	1039
510.559	1036
510.687	1035
510.815	1036
510.942	1040
511.07	1041
511.197	1041
511.325	1040
511.453	1033
511.58	1037
511.708	1046
511.835	1034
511.963	1039
512.091	1038
512.218	1039
512.346	1038
512.473	1036
512.601	1038
512.728	1041
512.856	1042
512.983	1040
513.111	1036
513.238	1036
513.366	1040
513.494	1044
513.621	1043
513.749	1045
513.876	1039
514.003	1036
514.131	1032
514.258	1048
514.386	1035
514.513	1034
514.641	1040
514.768	1042
514.896	1048
515.023	1040
515.151	1034
515.278	1046
515.405	1038
515.533	1044
515.66	1050
515.788	1040
515.915	1037
516.042	1047
516.17	1039
516.297	1043
516.425	1044
516.552	1038
516.679	1046
516.807	1034
516.934	1045
517.061	1045
517.189	1041
517.316	1044
517.443	1047
517.571	1038
517.698	1041
517.825	1043
517.953	1041
518.08	1048
518.207	1051
518.335	1037
518.462	1049
518.589	1052
518.716	1053
518.844	1044
518.971	1041
519.098	1042
519.226	1041
519.353	1042
519.48	1036
519.607	1046
519.734	1052
519.862	1038
519.989	1036
520.116	1038
520.243	1046
520.371	1041
520.498	1037
520.625	1041
520.752	1030
520.879	1043
521.006	1038
521.134	1038
521.261	1040
521.388	1046
521.515	1042
521.642	1036
521.769	1037
521.896	1041
522.024	1046
522.151	1042
522.278	1041
522.405	1042
522.532	1038
522.659	1035
522.786	1037
522.913	1038
523.04	1035
523.167	1051
523.295	1037
523.422	1040
523.549	1033
523.676	1042
523.803	1034
523.93	1043
524.057	1040
524.184	1053
524.311	1040
524.438	1043
524.565	1046
524.692	1045
524.819	1049
524.946	1044
525.073	1038
525.2	1036
525.327	1044
525.454	1042
525.581	1039
525.708	1038
525.835	1040
525.962	1045
526.088	1042
526.215	1039
526.342	1045
526.469	1042
526.596	1044
526.723	1039
526.85	1048
526.977	1037
527.104	1047
527.231	1045
527.358	1044
527.484	1041
527.611	1039
527.738	1045
527.865	1042
527.992	1041
528.119	1042
528.246	1042
528.372	1048
528.499	1041
528.626	1037
528.753	1042
528.88	1047
529.006	1045
529.133	1042
529.26	1038
529.387	1050
529.514	1048
529.64	1048
529.767	1039
529.894	1040
530.021	1044
530.147	1041
530.274	1041
530.401	1040
530.528	1039
530.654	1050
530.781	1042
530.908	1041
531.034	1048
531.161	1054
531.288	1037
531.414	1039
531.541	1036
531.668	1036
531.795	1045
531.921	1046
532.048	1037
532.174	1051
532.301	1050
532.428	1042
532.554	1052
532.681	1042
532.808	1040
532.934	1044
533.061	1041
533.187	1037
533.314	1042
533.441	1038
533.567	1037
533.694	1040
533.82	1050
533.947	1050
534.074	1040
534.2	1050
534.327	1039
534.453	1040
534.58	1039
534.706	1054
534.833	1050
534.959	1041
535.086	1044
535.212	1032
535.339	1047
535.465	1038
535.592	1050
535.718	1049
535.845	1048
535.971	1039
536.098	1044
536.224	1044
536.351	1043
536.477	1048
536.604	1042
536.73	1044
536.856	1048
536.983	1035
537.109	1049
537.236	1032
537.362	1044
537.488	1046
537.615	1047
537.741	1048
537.868	1050
537.994	1040
538.12	1046
538.247	1042
538.373	1050
538.499	1046
538.626	1038
538.752	1043
538.878	1045
539.005	1037
539.131	1038
539.257	1044
539.384	1049
539.51	1032
539.636	1050
539.763	1039
539.889	1050
540.015	1041
540.141	1045
540.268	1043
540.394	1038
540.52	1044
540.646	1041
540.773	1049
540.899	1041
541.025	1049
541.151	1036
541.278	1035
541.404	1044
541.53	1046
541.656	1047
541.782	1061
541.909	1044
542.035	1055
542.161	1043
542.287	1044
542.413	1053
542.539	1044
542.665	1041
542.792	1041
542.918	1038
543.044	1048
543.17	1041
543.296	1042
543.422	1044
543.548	1041
543.674	1042
543.801	1044
543.927	1041
544.053	1040
544.179	1045
544.305	1045
544.431	1042
544.557	1035
544.683	1048
544.809	1037
544.935	1044
545.061	1046
545.187	1044
545.313	1041
545.439	1046
545.565	1050
545.691	1049
545.817	1036
545.943	1050
546.069	1045
546.195	1044
546.321	1047
546.447	1042
546.573	1052
546.699	1040
546.825	1043
546.951	1048
547.077	1040
547.203	1046
547.329	1049
547.454	1039
547.58	1032
547.706	1037
547.832	1047
547.958	1045
548.084	1040
548.21	1045
548.336	1048
548.462	1042
548.587	1051
548.713	1045
548.839	1046
548.965	1048
549.091	1041
549.217	1048
549.342	1045
549.468	1049
549.594	1047
549.72	1043
549.846	1051
549.971	1041
550.097	1046
550.223	1050
550.349	1049
550.474	1045
550.6	1039
550.726	1044
550.852	1038
550.977	1045
551.103	1050
551.229	1047
551.355	1053
551.48	1043
551.606	1041
551.732	1046
551.857	1037
551.983	1031
552.109	1038
552.234	1040
552.36	1050
552.486	1047
552.611	1046
552.737	1042
552.863	1045
552.988	1049
553.114	1038
553.24	1047
553.365	1046
553.491	1036
553.616	1043
553.742	1043
553.868	1051
553.993	1052
554.119	1047
554.244	1046
554.37	1054
554.495	1043
554.621	1041
554.746	1035
554.872	1049
554.998	1046
555.123	1052
555.249	1042
555.374	1050
555.5	1042
555.625	1041
555.751	1049
555.876	1050
556.002	1051
556.127	1042
556.252	1052
556.378	1045
556.503	1039
556.629	1044
556.754	1041
556.88	1042
557.005	1051
557.131	1048
557.256	1042
557.381	1046
557.507	1042
557.632	1049
557.758	1041
557.883	1039
558.008	1033
558.134	1037
558.259	1052
558.384	1041
558.51	1051
558.635	1043
558.76	1049
558.886	1049
559.011	1053
559.136	1051
559.262	1051
559.387	1053
559.512	1052
559.638	1051
559.763	1048
559.888	1055
560.013	1046
560.139	1042
560.264	1052
560.389	1046
560.514	1044
560.64	1044
560.765	1043
560.89	1058
561.015	1043
561.141	1048
561.266	1052
561.391	1053
561.516	1049
561.641	1055
561.767	1046
561.892	1064
562.017	1045
562.142	1046
562.267	1044
562.392	1050
562.518	1047
562.643	1049
562.768	1050
562.893	1049
563.018	1051
563.143	1049
563.268	1049
563.393	1039
563.518	1046
563.644	1052
563.769	1045
563.894	1052
564.019	1045
564.144	1047
564.269	1046
564.394	1041
564.519	1040
564.644	1033
564.769	1058
564.894	1044
565.019	1038
565.144	1050
565.269	1048
565.394	1049
565.519	1037
565.644	1045
565.769	1046
565.894	1047
566.019	1041
566.144	1053
566.269	1055
566.394	1037
566.519	1048
566.644	1057
566.769	1058
566.893	1060
567.018	1051
567.143	1045
567.268	1041
567.393	1045
567.518	1048
567.643	1045
567.768	1044
567.893	1055
568.017	1053
568.142	1057
568.267	1047
568.392	1051
568.517	1051
568.642	1051
568.766	1044
568.891	1046
569.016	1054
569.141	1047
569.266	1044
569.39	1043
569.515	1053
569.64	1053
569.765	1040
569.889	1044
570.014	1037
570.139	1044
570.264	1050
570.388	1046
570.513	1043
570.638	1049
570.762	1047
570.887	1046
571.012	1044
571.137	1047
571.261	1038
571.386	1046
571.511	1049
571.635	1049
571.76	1039
571.885	1051
572.009	1054
572.134	1049
572.258	1057
572.383	1050
572.508	1045
572.632	1049
572.757	1048
572.881	1046
573.006	1054
573.131	1056
573.255	1038
573.38	1057
573.504	1049
573.629	1052
573.753	1049
573.878	1054
574.003	1052
574.127	1049
574.252	1043
574.376	1049
574.501	1053
574.625	1064
574.75	1051
574.874	1047
574.999	1045
575.123	1045
575.248	1047
575.372	1056
575.496	1047
575.621	1054
575.745	1044
575.87	1052
575.994	1052
576.119	1050
576.243	1048
576.367	1049
576.492	1060
576.616	1057
576.741	1043
576.865	1053
576.989	1054
577.114	1049
577.238	1060
577.362	1054
577.487	1047
577.611	1046
577.735	1057
577.86	1048
577.984	1047
578.108	1054
578.233	1057
578.357	1063
578.481	1057
578.606	1055
578.73	1058
578.854	1055
578.978	1048
578.977	1053
579.106	1036
579.234	1040
579.362	1039
579.491	1040
579.619	1035
579.747	1038
579.875	1043
580.004	1040
580.132	1037
580.26	1035
580.388	1041
580.517	1039
580.645	1044
580.773	1043
580.901	1045
581.03	1040
581.158	1039
581.286	1042
581.414	1039
581.542	1045
581.671	1046
581.799	1038
581.927	1042
582.055	1048
582.183	1045
582.312	1036
582.44	1039
582.568	1043
582.696	1044
582.824	1048
582.952	1045
583.08	1045
583.209	1053
583.337	1044
583.465	1050
583.593	1039
583.721	1048
583.849	1045
583.977	1056
584.105	1056
584.233	1042
584.362	1049
584.49	1053
584.618	1050
584.746	1053
584.874	1050
585.002	1047
585.13	1053
585.258	1044
585.386	1043
585.514	1053
585.642	1049
585.77	1057
585.898	1060
586.026	1057
586.154	1056
586.282	1042
586.41	1056
586.538	1058
586.666	1058
586.794	1058
586.922	1059
587.05	1058
587.178	1050
587.306	1058
587.434	1048
587.562	1052
587.69	1053
587.818	1057
587.946	1056
588.074	1047
588.202	1055
588.33	1057
588.458	1060
588.586	1058
588.714	1075
588.842	1071
588.97	1066
589.097	1062
589.225	1061
589.353	1057
589.481	1062
589.609	1055
589.737	1070
589.865	1064
589.993	1065
590.121	1060
590.248	1066
590.376	1063
590.504	1068
590.632	1063
590.76	1076
590.888	1063
591.015	1072
591.143	1079
591.271	1069
591.399	1065
591.527	1057
591.655	1077
591.782	1066
591.91	1060
592.038	1066
592.166	1079
592.294	1067
592.421	1063
592.549	1069
592.677	1069
592.805	1080
592.932	1063
593.06	1074
593.188	1079
593.316	1078
593.443	1074
593.571	1087
593.699	1071
593.826	1079
593.954	1080
594.082	1073
594.21	1082
594.337	1079
594.465	1088
594.593	1073
594.72	1074
594.848	1076
594.976	1084
595.103	1083
595.231	1081
595.359	1082
595.486	1090
595.614	1089
595.742	1094
595.869	1081
595.997	1098
596.124	1082
596.252	1092
596.38	1083
596.507	1090
596.635	1087
596.763	1098
596.89	1100
597.018	1102
597.145	1095
597.273	1093
597.4	1104
597.528	1091
597.656	1091
597.783	1098
597.911	1088
598.038	1103
598.166	1095
598.293	1092
598.421	1090
598.548	1106
598.676	1111
598.803	1108
598.931	1091
599.058	1095
599.186	1086
599.313	1097
599.441	1115
599.568	1110
599.696	1110
599.823	1105
599.951	1106
600.078	1118
600.206	1116
600.333	1114
600.461	1099
600.588	1111
600.715	1113
600.843	1114
600.97	1119
601.098	1112
601.225	1120
601.353	1129
601.48	1129
601.607	1112
601.735	1121
601.862	1116
601.99	1123
602.117	1115
602.244	1127
602.372	1117
602.499	1107
602.626	1122
602.754	1131
602.881	1126
603.008	1127
603.136	1122
603.263	1117
603.39	1116
603.518	1129
603.645	1135
603.772	1135
603.9	1135
604.027	1121
604.154	1141
604.281	1142
604.409	1139
604.536	1140
604.663	1153
604.791	1145
604.918	1142
605.045	1141
605.172	1152
605.3	1155
605.427	1155
605.554	1145
605.681	1152
605.809	1148
605.936	1153
606.063	1154
606.19	1158
606.317	1139
606.445	1167
606.572	1154
606.699	1149
606.826	1155
606.953	1160
607.08	1155
607.208	1175
607.335	1161
607.462	1163
607.589	1158
607.716	1180
607.843	1158
607.97	1160
608.098	1176
608.225	1164
608.352	1177
608.479	1171
608.606	1151
608.733	1162
608.86	1154
608.987	1182
609.114	1186
609.241	1172
609.369	1182
609.496	1191
609.623	1209
609.75	1173
609.877	1187
610.004	1198
610.131	1171
610.258	1186
610.385	1190
610.512	1169
610.639	1203
610.766	1183
610.893	1187
611.02	1191
611.147	1207
611.274	1192
611.401	1210
611.528	1193
611.655	1210
611.782	1225
611.909	1192
612.036	1217
612.163	1204
612.29	1192
612.417	1221
612.543	1203
612.67	1218
612.797	1220
612.924	1214
613.051	1212
613.178	1216
613.305	1218
613.432	1220
613.559	1239
613.686	1213
613.813	1214
613.939	1230
614.066	1237
614.193	1220
614.32	1236
614.447	1238
614.574	1223
614.701	1227
614.827	1241
614.954	1252
615.081	1244
615.208	1233
615.335	1229
615.461	1240
615.588	1246
615.715	1257
615.842	1254
615.969	1262
616.095	1262
616.222	1261
616.349	1257
616.476	1255
616.602	1264
616.729	1276
616.856	1252
616.983	1258
617.109	1280
617.236	1287
617.363	1258
617.49	1295
617.616	1267
617.743	1294
617.87	1285
617.996	1301
618.123	1278
618.25	1273
618.376	1285
618.503	1274
618.63	1278
618.756	1295
618.883	1306
619.01	1292
619.136	1284
619.263	1289
619.39	1298
619.516	1305
619.643	1313
619.769	1329
619.896	1306
620.023	1316
620.149	1325
620.276	1312
620.402	1338
620.529	1303
620.656	1310
620.782	1325
620.909	1329
621.035	1327
621.162	1348
621.288	1323
621.415	1339
621.541	1332
621.668	1327
621.795	1346
621.921	1342
622.048	1326
622.174	1361
622.301	1349
622.427	1342
622.554	1363
622.68	1363
622.807	1359
622.933	1356
623.059	1372
623.186	1356
623.312	1373
623.439	1374
623.565	1371
623.692	1388
623.818	1371
623.945	1386
624.071	1370
624.197	1376
624.324	1406
624.45	1390
624.577	1390
624.703	1384
624.829	1392
624.956	1412
625.082	1415
625.209	1388
625.335	1393
625.461	1390
625.588	1404
625.714	1409
625.84	1422
625.967	1416
626.093	1430
626.219	1424
626.346	1410
626.472	1441
626.598	1431
626.725	1434
626.851	1430
626.977	1457
627.103	1434
627.23	1456
627.356	1441
627.482	1444
627.608	1454
627.735	1444
627.861	1477
627.987	1460
628.113	1461
628.24	1461
628.366	1460
628.492	1480
628.618	1472
628.745	1465
628.871	1491
628.997	1510
629.123	1494
629.249	1490
629.376	1484
629.502	1494
629.628	1502
629.754	1530
629.88	1515
630.006	1535
630.132	1538
630.259	1527
630.385	1543
630.511	1543
630.637	1547
630.763	1544
630.889	1546
631.015	1542
631.141	1557
631.268	1561
631.394	1566
631.52	1574
631.646	1568
631.772	1574
631.898	1565
