Wavelength	PL390-MAO-Cr-Mau7
nm	Counts
449.342	1021
449.472	1017
449.602	1022
449.732	1020
449.862	1019
449.992	1017
450.122	1028
450.252	1021
450.382	1016
450.512	1012
450.642	1024
450.772	1014
450.902	1020
451.032	1023
451.162	1017
451.292	1018
451.422	1029
451.552	1016
451.682	1021
451.812	1020
451.942	1018
452.071	1026
452.201	1021
452.331	1019
452.461	1026
452.591	1022
452.721	1016
452.851	1018
452.981	1018
453.111	1022
453.241	1025
453.371	1019
453.501	1026
453.63	1017
453.76	1021
453.89	1021
454.02	1018
454.15	1023
454.28	1017
454.41	1011
454.539	1015
454.669	1015
454.799	1019
454.929	1018
455.059	1013
455.189	1018
455.318	1022
455.448	1022
455.578	1014
455.708	1019
455.838	1018
455.968	1017
456.097	1017
456.227	1019
456.357	1020
456.487	1021
456.617	1020
456.746	1022
456.876	1030
457.006	1025
457.136	1022
457.265	1014
457.395	1021
457.525	1017
457.655	1019
457.784	1024
457.914	1025
458.044	1027
458.174	1021
458.303	1024
458.433	1019
458.563	1017
458.692	1019
458.822	1024
458.952	1017
459.081	1017
459.211	1017
459.341	1020
459.47	1019
459.6	1018
459.73	1020
459.86	1027
459.989	1022
460.119	1023
460.248	1022
460.378	1021
460.508	1017
460.637	1025
460.767	1016
460.897	1024
461.026	1016
461.156	1024
461.286	1020
461.415	1023
461.545	1022
461.674	1015
461.804	1020
461.933	1023
462.063	1021
462.193	1012
462.322	1024
462.452	1026
462.581	1019
462.711	1014
462.84	1018
462.97	1021
463.1	1014
463.229	1018
463.359	1016
463.488	1024
463.618	1021
463.747	1028
463.877	1019
464.006	1020
464.136	1015
464.265	1025
464.395	1018
464.524	1021
464.654	1020
464.783	1016
464.913	1019
465.042	1017
465.172	1018
465.301	1017
465.431	1022
465.56	1024
465.69	1020
465.819	1035
465.948	1021
466.078	1023
466.207	1024
466.337	1028
466.466	1021
466.596	1023
466.725	1016
466.854	1022
466.984	1025
467.113	1015
467.243	1024
467.372	1024
467.501	1023
467.631	1024
467.76	1015
467.889	1015
468.019	1019
468.148	1019
468.278	1016
468.407	1024
468.536	1029
468.666	1021
468.795	1026
468.924	1021
469.054	1021
469.183	1020
469.312	1021
469.442	1026
469.571	1031
469.7	1026
469.829	1016
469.959	1026
470.088	1028
470.217	1024
470.347	1028
470.476	1019
470.605	1021
470.734	1025
470.864	1018
470.993	1024
471.122	1021
471.251	1022
471.381	1021
471.51	1023
471.639	1021
471.768	1025
471.898	1020
472.027	1023
472.156	1022
472.285	1021
472.414	1018
472.544	1022
472.673	1026
472.802	1025
472.931	1018
473.06	1015
473.189	1025
473.319	1025
473.448	1018
473.577	1022
473.706	1028
473.835	1022
473.964	1025
474.094	1022
474.223	1022
474.352	1019
474.481	1028
474.61	1020
474.739	1025
474.868	1032
474.997	1024
475.126	1024
475.256	1018
475.385	1022
475.514	1020
475.643	1024
475.772	1016
475.901	1026
476.03	1022
476.159	1029
476.288	1027
476.417	1024
476.546	1028
476.675	1026
476.804	1023
476.933	1023
477.062	1021
477.191	1020
477.32	1024
477.449	1019
477.578	1024
477.707	1023
477.836	1022
477.965	1026
478.094	1030
478.223	1030
478.352	1024
478.481	1030
478.61	1025
478.739	1023
478.868	1028
478.997	1026
479.126	1030
479.255	1032
479.384	1035
479.513	1026
479.642	1028
479.771	1024
479.9	1031
480.028	1018
480.157	1026
480.286	1019
480.415	1030
480.544	1027
480.673	1021
480.802	1021
480.931	1024
481.06	1030
481.188	1021
481.317	1020
481.446	1026
481.575	1026
481.704	1025
481.833	1032
481.961	1030
482.09	1028
482.219	1022
482.348	1031
482.477	1025
482.606	1022
482.734	1025
482.863	1020
482.992	1034
483.121	1024
483.249	1027
483.378	1035
483.507	1029
483.636	1032
483.765	1023
483.893	1029
484.022	1019
484.151	1027
484.28	1032
484.408	1029
484.537	1032
484.666	1025
484.794	1018
484.923	1028
485.052	1025
485.181	1024
485.309	1021
485.438	1022
485.567	1028
485.695	1026
485.824	1030
485.953	1025
486.081	1028
486.21	1029
486.339	1031
486.467	1029
486.596	1029
486.725	1024
486.853	1027
486.982	1031
487.11	1030
487.239	1029
487.368	1041
487.496	1035
487.625	1030
487.754	1028
487.882	1028
488.011	1032
488.139	1029
488.268	1026
488.396	1027
488.525	1036
488.654	1033
488.782	1029
488.911	1029
489.039	1029
489.168	1036
489.296	1021
489.425	1029
489.553	1030
489.682	1022
489.81	1032
489.939	1031
490.067	1027
490.196	1023
490.324	1037
490.453	1025
490.581	1025
490.71	1032
490.838	1029
490.967	1025
491.095	1025
491.224	1026
491.352	1033
491.481	1034
491.609	1034
491.738	1027
491.866	1033
491.994	1028
492.123	1038
492.251	1023
492.38	1031
492.508	1027
492.636	1035
492.765	1029
492.893	1022
493.022	1032
493.15	1026
493.278	1026
493.407	1024
493.535	1022
493.663	1028
493.792	1029
493.92	1029
494.049	1025
494.177	1023
494.305	1030
494.434	1033
494.562	1035
494.69	1032
494.818	1030
494.947	1030
495.075	1026
495.203	1029
495.332	1027
495.46	1025
495.588	1048
495.716	1019
495.845	1033
495.973	1036
496.101	1028
496.23	1028
496.358	1038
496.486	1029
496.614	1031
496.742	1031
496.871	1028
496.999	1038
497.127	1029
497.255	1040
497.384	1029
497.512	1034
497.64	1032
497.768	1029
497.896	1028
498.024	1032
498.153	1025
498.281	1030
498.409	1033
498.537	1034
498.665	1025
498.793	1037
498.922	1030
499.05	1035
499.178	1027
499.306	1024
499.434	1040
499.562	1027
499.69	1035
499.818	1032
499.947	1028
500.075	1032
500.203	1034
500.331	1024
500.459	1023
500.587	1033
500.715	1032
500.843	1024
500.971	1041
501.099	1032
501.227	1028
501.355	1033
501.483	1032
501.611	1032
501.739	1029
501.867	1026
501.995	1039
502.123	1033
502.251	1041
502.379	1028
502.507	1028
502.635	1023
502.763	1036
502.891	1035
503.019	1035
503.147	1030
503.275	1036
503.403	1029
503.531	1033
503.659	1031
503.787	1034
503.915	1030
504.043	1036
504.171	1039
504.299	1034
504.426	1035
504.554	1029
504.682	1032
504.81	1040
504.938	1029
505.066	1030
505.194	1032
505.322	1029
505.449	1036
505.577	1029
505.705	1039
505.833	1031
505.961	1029
506.089	1029
506.217	1032
506.344	1030
506.472	1024
506.6	1030
506.728	1039
506.856	1034
506.983	1031
507.111	1033
507.239	1035
507.367	1028
507.495	1028
507.622	1037
507.75	1033
507.878	1036
508.006	1041
508.133	1028
508.261	1026
508.389	1040
508.516	1029
508.644	1037
508.772	1033
508.9	1030
509.027	1017
509.155	1032
509.283	1033
509.41	1036
509.538	1030
509.666	1029
509.793	1028
509.921	1037
510.049	1043
510.176	1043
510.304	1036
510.432	1029
510.559	1035
510.687	1028
510.815	1037
510.942	1031
511.07	1034
511.197	1031
511.325	1038
511.453	1034
511.58	1029
511.708	1036
511.835	1032
511.963	1026
512.091	1034
512.218	1029
512.346	1034
512.473	1036
512.601	1037
512.728	1038
512.856	1036
512.983	1036
513.111	1030
513.238	1040
513.366	1033
513.494	1041
513.621	1049
513.749	1030
513.876	1040
514.003	1028
514.131	1030
514.258	1038
514.386	1035
514.513	1031
514.641	1029
514.768	1029
514.896	1026
515.023	1032
515.151	1026
515.278	1033
515.405	1032
515.533	1031
515.66	1035
515.788	1038
515.915	1031
516.042	1036
516.17	1037
516.297	1040
516.425	1039
516.552	1033
516.679	1031
516.807	1037
516.934	1034
517.061	1032
517.189	1042
517.316	1032
517.443	1041
517.571	1032
517.698	1032
517.825	1037
517.953	1040
518.08	1036
518.207	1034
518.335	1033
518.462	1031
518.589	1024
518.716	1031
518.844	1030
518.971	1035
519.098	1033
519.226	1030
519.353	1032
519.48	1037
519.607	1034
519.734	1035
519.862	1024
519.989	1029
520.116	1032
520.243	1032
520.371	1036
520.498	1034
520.625	1046
520.752	1032
520.879	1036
521.006	1030
521.134	1036
521.261	1042
521.388	1026
521.515	1028
521.642	1037
521.769	1036
521.896	1036
522.024	1030
522.151	1032
522.278	1029
522.405	1033
522.532	1031
522.659	1033
522.786	1029
522.913	1037
523.04	1041
523.167	1043
523.295	1036
523.422	1033
523.549	1037
523.676	1033
523.803	1032
523.93	1036
524.057	1034
524.184	1032
524.311	1032
524.438	1035
524.565	1036
524.692	1036
524.819	1032
524.946	1030
525.073	1035
525.2	1036
525.327	1044
525.454	1039
525.581	1042
525.708	1036
525.835	1030
525.962	1037
526.088	1039
526.215	1034
526.342	1029
526.469	1026
526.596	1034
526.723	1042
526.85	1034
526.977	1031
527.104	1029
527.231	1032
527.358	1037
527.484	1033
527.611	1037
527.738	1031
527.865	1038
527.992	1038
528.119	1040
528.246	1030
528.372	1040
528.499	1038
528.626	1043
528.753	1041
528.88	1031
529.006	1033
529.133	1036
529.26	1037
529.387	1031
529.514	1031
529.64	1030
529.767	1039
529.894	1039
530.021	1029
530.147	1032
530.274	1038
530.401	1034
530.528	1037
530.654	1032
530.781	1035
530.908	1034
531.034	1038
531.161	1038
531.288	1031
531.414	1031
531.541	1039
531.668	1039
531.795	1038
531.921	1030
532.048	1028
532.174	1038
532.301	1036
532.428	1037
532.554	1034
532.681	1032
532.808	1032
532.934	1038
533.061	1043
533.187	1034
533.314	1034
533.441	1038
533.567	1041
533.694	1033
533.82	1036
533.947	1031
534.074	1038
534.2	1041
534.327	1044
534.453	1029
534.58	1038
534.706	1035
534.833	1034
534.959	1034
535.086	1029
535.212	1038
535.339	1033
535.465	1033
535.592	1032
535.718	1040
535.845	1033
535.971	1039
536.098	1029
536.224	1043
536.351	1029
536.477	1032
536.604	1032
536.73	1039
536.856	1028
536.983	1036
537.109	1028
537.236	1033
537.362	1038
537.488	1034
537.615	1040
537.741	1032
537.868	1044
537.994	1033
538.12	1034
538.247	1039
538.373	1030
538.499	1035
538.626	1046
538.752	1043
538.878	1037
539.005	1027
539.131	1040
539.257	1027
539.384	1035
539.51	1038
539.636	1056
539.763	1035
539.889	1039
540.015	1030
540.141	1038
540.268	1031
540.394	1032
540.52	1031
540.646	1038
540.773	1036
540.899	1035
541.025	1031
541.151	1036
541.278	1034
541.404	1038
541.53	1036
541.656	1032
541.782	1035
541.909	1027
542.035	1033
542.161	1031
542.287	1041
542.413	1032
542.539	1035
542.665	1039
542.792	1032
542.918	1034
543.044	1035
543.17	1028
543.296	1033
543.422	1034
543.548	1028
543.674	1031
543.801	1039
543.927	1039
544.053	1037
544.179	1029
544.305	1029
544.431	1034
544.557	1042
544.683	1042
544.809	1044
544.935	1038
545.061	1041
545.187	1035
545.313	1037
545.439	1038
545.565	1034
545.691	1042
545.817	1032
545.943	1030
546.069	1036
546.195	1033
546.321	1041
546.447	1032
546.573	1042
546.699	1035
546.825	1027
546.951	1037
547.077	1040
547.203	1030
547.329	1033
547.454	1034
547.58	1039
547.706	1031
547.832	1043
547.958	1040
548.084	1035
548.21	1035
548.336	1038
548.462	1032
548.587	1027
548.713	1029
548.839	1027
548.965	1032
549.091	1034
549.217	1032
549.342	1043
549.468	1036
549.594	1032
549.72	1034
549.846	1037
549.971	1038
550.097	1035
550.223	1035
550.349	1038
550.474	1038
550.6	1031
550.726	1040
550.852	1039
550.977	1037
551.103	1036
551.229	1042
551.355	1038
551.48	1037
551.606	1031
551.732	1036
551.857	1043
551.983	1038
552.109	1042
552.234	1034
552.36	1036
552.486	1041
552.611	1042
552.737	1031
552.863	1044
552.988	1040
553.114	1033
553.24	1032
553.365	1045
553.491	1038
553.616	1033
553.742	1034
553.868	1038
553.993	1041
554.119	1042
554.244	1033
554.37	1039
554.495	1041
554.621	1036
554.746	1040
554.872	1034
554.998	1038
555.123	1038
555.249	1040
555.374	1041
555.5	1032
555.625	1035
555.751	1030
555.876	1038
556.002	1023
556.127	1036
556.252	1036
556.378	1038
556.503	1032
556.629	1033
556.754	1036
556.88	1044
557.005	1031
557.131	1041
557.256	1046
557.381	1037
557.507	1037
557.632	1034
557.758	1030
557.883	1032
558.008	1032
558.134	1037
558.259	1034
558.384	1039
558.51	1030
558.635	1032
558.76	1036
558.886	1025
559.011	1031
559.136	1038
559.262	1035
559.387	1042
559.512	1032
559.638	1031
559.763	1043
559.888	1037
560.013	1041
560.139	1034
560.264	1037
560.389	1039
560.514	1032
560.64	1035
560.765	1042
560.89	1036
561.015	1036
561.141	1032
561.266	1042
561.391	1031
561.516	1030
561.641	1035
561.767	1033
561.892	1029
562.017	1034
562.142	1035
562.267	1033
562.392	1035
562.518	1038
562.643	1037
562.768	1037
562.893	1032
563.018	1035
563.143	1035
563.268	1031
563.393	1036
563.518	1041
563.644	1036
563.769	1034
563.894	1032
564.019	1035
564.144	1041
564.269	1035
564.394	1038
564.519	1036
564.644	1041
564.769	1036
564.894	1048
565.019	1032
565.144	1039
565.269	1036
565.394	1035
565.519	1030
565.644	1051
565.769	1040
565.894	1035
566.019	1033
566.144	1040
566.269	1038
566.394	1041
566.519	1040
566.644	1043
566.769	1040
566.893	1040
567.018	1036
567.143	1038
567.268	1033
567.393	1031
567.518	1045
567.643	1032
567.768	1041
567.893	1039
568.017	1042
568.142	1036
568.267	1033
568.392	1040
568.517	1040
568.642	1038
568.766	1052
568.891	1036
569.016	1046
569.141	1039
569.266	1033
569.39	1036
569.515	1040
569.64	1033
569.765	1045
569.889	1033
570.014	1037
570.139	1040
570.264	1046
570.388	1039
570.513	1044
570.638	1034
570.762	1030
570.887	1035
571.012	1046
571.137	1041
571.261	1041
571.386	1043
571.511	1044
571.635	1038
571.76	1039
571.885	1027
572.009	1032
572.134	1044
572.258	1036
572.383	1037
572.508	1039
572.632	1040
572.757	1039
572.881	1040
573.006	1040
573.131	1036
573.255	1040
573.38	1035
573.504	1030
573.629	1041
573.753	1042
573.878	1030
574.003	1040
574.127	1034
574.252	1039
574.376	1041
574.501	1041
574.625	1028
574.75	1035
574.874	1043
574.999	1035
575.123	1033
575.248	1039
575.372	1036
575.496	1039
575.621	1037
575.745	1039
575.87	1046
575.994	1044
576.119	1048
576.243	1037
576.367	1038
576.492	1041
576.616	1037
576.741	1036
576.865	1035
576.989	1039
577.114	1047
577.238	1037
577.362	1046
577.487	1032
577.611	1051
577.735	1028
577.86	1039
577.984	1037
578.108	1040
578.233	1035
578.357	1043
578.481	1038
578.606	1045
578.73	1042
578.854	1044
578.978	1038
578.977	1027
579.106	1020
579.234	1038
579.362	1029
579.491	1028
579.619	1035
579.747	1034
579.875	1041
580.004	1039
580.132	1036
580.26	1030
580.388	1033
580.517	1028
580.645	1038
580.773	1032
580.901	1035
581.03	1024
581.158	1034
581.286	1039
581.414	1038
581.542	1038
581.671	1036
581.799	1039
581.927	1037
582.055	1041
582.183	1026
582.312	1027
582.44	1031
582.568	1032
582.696	1033
582.824	1036
582.952	1041
583.08	1033
583.209	1034
583.337	1031
583.465	1038
583.593	1045
583.721	1036
583.849	1039
583.977	1029
584.105	1035
584.233	1038
584.362	1038
584.49	1033
584.618	1041
584.746	1034
584.874	1046
585.002	1035
585.13	1045
585.258	1037
585.386	1039
585.514	1043
585.642	1027
585.77	1035
585.898	1047
586.026	1043
586.154	1040
586.282	1035
586.41	1035
586.538	1053
586.666	1046
586.794	1044
586.922	1041
587.05	1041
587.178	1042
587.306	1043
587.434	1042
587.562	1042
587.69	1047
587.818	1039
587.946	1049
588.074	1045
588.202	1044
588.33	1050
588.458	1048
588.586	1054
588.714	1049
588.842	1057
588.97	1049
589.097	1037
589.225	1049
589.353	1044
589.481	1036
589.609	1048
589.737	1052
589.865	1053
589.993	1053
590.121	1041
590.248	1040
590.376	1042
590.504	1051
590.632	1047
590.76	1058
590.888	1056
591.015	1053
591.143	1049
591.271	1054
591.399	1061
591.527	1057
591.655	1057
591.782	1056
591.91	1058
592.038	1061
592.166	1063
592.294	1059
592.421	1056
592.549	1059
592.677	1064
592.805	1068
592.932	1061
593.06	1062
593.188	1050
593.316	1055
593.443	1061
593.571	1054
593.699	1053
593.826	1058
593.954	1049
594.082	1067
594.21	1072
594.337	1059
594.465	1052
594.593	1064
594.72	1068
594.848	1067
594.976	1065
595.103	1061
595.231	1073
595.359	1060
595.486	1066
595.614	1076
595.742	1070
595.869	1061
595.997	1061
596.124	1055
596.252	1067
596.38	1067
596.507	1056
596.635	1077
596.763	1063
596.89	1071
597.018	1053
597.145	1075
597.273	1082
597.4	1071
597.528	1065
597.656	1073
597.783	1055
597.911	1073
598.038	1077
598.166	1073
598.293	1079
598.421	1081
598.548	1075
598.676	1084
598.803	1078
598.931	1091
599.058	1078
599.186	1083
599.313	1082
599.441	1083
599.568	1068
599.696	1082
599.823	1078
599.951	1094
600.078	1076
600.206	1088
600.333	1087
600.461	1086
600.588	1086
600.715	1086
600.843	1086
600.97	1093
601.098	1077
601.225	1095
601.353	1087
601.48	1089
601.607	1091
601.735	1104
601.862	1105
601.99	1112
602.117	1083
602.244	1096
602.372	1099
602.499	1098
602.626	1104
602.754	1100
602.881	1104
603.008	1091
603.136	1098
603.263	1097
603.39	1093
603.518	1109
603.645	1107
603.772	1093
603.9	1107
604.027	1116
604.154	1106
604.281	1114
604.409	1096
604.536	1104
604.663	1106
604.791	1123
604.918	1122
605.045	1118
605.172	1087
605.3	1107
605.427	1119
605.554	1116
605.681	1126
605.809	1130
605.936	1112
606.063	1124
606.19	1116
606.317	1127
606.445	1120
606.572	1122
606.699	1112
606.826	1124
606.953	1141
607.08	1141
607.208	1125
607.335	1119
607.462	1139
607.589	1143
607.716	1138
607.843	1113
607.97	1126
608.098	1138
608.225	1133
608.352	1135
608.479	1133
608.606	1135
608.733	1148
608.86	1139
608.987	1134
609.114	1136
609.241	1147
609.369	1137
609.496	1130
609.623	1149
609.75	1147
609.877	1134
610.004	1141
610.131	1138
610.258	1156
610.385	1145
610.512	1132
610.639	1145
610.766	1152
610.893	1149
611.02	1159
611.147	1144
611.274	1145
611.401	1157
611.528	1156
611.655	1147
611.782	1144
611.909	1159
612.036	1169
612.163	1156
612.29	1162
612.417	1166
612.543	1183
612.67	1163
612.797	1165
612.924	1164
613.051	1172
613.178	1165
613.305	1167
613.432	1173
613.559	1169
613.686	1178
613.813	1168
613.939	1181
614.066	1188
614.193	1176
614.32	1186
614.447	1171
614.574	1183
614.701	1179
614.827	1189
614.954	1209
615.081	1204
615.208	1189
615.335	1188
615.461	1211
615.588	1185
615.715	1183
615.842	1215
615.969	1188
616.095	1204
616.222	1189
616.349	1192
616.476	1212
616.602	1221
616.729	1210
616.856	1211
616.983	1196
617.109	1218
617.236	1225
617.363	1220
617.49	1222
617.616	1220
617.743	1235
617.87	1215
617.996	1230
618.123	1209
618.25	1223
618.376	1234
618.503	1218
618.63	1226
618.756	1233
618.883	1230
619.01	1211
619.136	1246
619.263	1220
619.39	1243
619.516	1231
619.643	1237
619.769	1224
619.896	1235
620.023	1230
620.149	1231
620.276	1248
620.402	1248
620.529	1245
620.656	1253
620.782	1261
620.909	1265
621.035	1246
621.162	1247
621.288	1269
621.415	1260
621.541	1277
621.668	1255
621.795	1250
621.921	1277
622.048	1260
622.174	1266
622.301	1262
622.427	1279
622.554	1268
622.68	1285
622.807	1287
622.933	1284
623.059	1273
623.186	1269
623.312	1269
623.439	1300
623.565	1304
623.692	1302
623.818	1289
623.945	1277
624.071	1285
624.197	1293
624.324	1298
624.45	1293
624.577	1278
624.703	1315
624.829	1290
624.956	1299
625.082	1316
625.209	1319
625.335	1323
625.461	1319
625.588	1325
625.714	1312
625.84	1323
625.967	1334
626.093	1329
626.219	1325
626.346	1334
626.472	1349
626.598	1332
626.725	1335
626.851	1329
626.977	1357
627.103	1358
627.23	1324
627.356	1345
627.482	1351
627.608	1385
627.735	1385
627.861	1368
627.987	1383
628.113	1363
628.24	1370
628.366	1341
628.492	1374
628.618	1389
628.745	1363
628.871	1381
628.997	1366
629.123	1374
629.249	1373
629.376	1375
629.502	1397
629.628	1390
629.754	1410
629.88	1388
630.006	1407
630.132	1392
630.259	1410
630.385	1425
630.511	1406
630.637	1413
630.763	1407
630.889	1423
631.015	1424
631.141	1424
631.268	1451
631.394	1453
631.52	1441
631.646	1434
631.772	1461
631.898	1437
