Wavelength	PL390-MAO-Cr-Mau2
nm	Counts
449.342	1016
449.472	1009
449.602	1021
449.732	1006
449.862	1019
449.992	1013
450.122	1010
450.252	1008
450.382	1012
450.512	1009
450.642	1015
450.772	1018
450.902	1019
451.032	1014
451.162	1015
451.292	1020
451.422	1018
451.552	1012
451.682	1012
451.812	1014
451.942	1016
452.071	1010
452.201	1009
452.331	1011
452.461	1023
452.591	1015
452.721	1014
452.851	1021
452.981	1015
453.111	1020
453.241	1018
453.371	1014
453.501	1014
453.63	1016
453.76	1012
453.89	1017
454.02	1019
454.15	1016
454.28	1018
454.41	1009
454.539	1011
454.669	1014
454.799	1016
454.929	1023
455.059	1012
455.189	1011
455.318	1017
455.448	1017
455.578	1008
455.708	1015
455.838	1012
455.968	1013
456.097	1024
456.227	1016
456.357	1021
456.487	1011
456.617	1013
456.746	1017
456.876	1016
457.006	1017
457.136	1012
457.265	1008
457.395	1015
457.525	1018
457.655	1016
457.784	1013
457.914	1015
458.044	1017
458.174	1014
458.303	1008
458.433	1013
458.563	1016
458.692	1018
458.822	1014
458.952	1019
459.081	1012
459.211	1011
459.341	1012
459.47	1016
459.6	1020
459.73	1025
459.86	1020
459.989	1019
460.119	1013
460.248	1017
460.378	1018
460.508	1010
460.637	1015
460.767	1019
460.897	1023
461.026	1015
461.156	1014
461.286	1021
461.415	1011
461.545	1015
461.674	1017
461.804	1019
461.933	1019
462.063	1012
462.193	1016
462.322	1019
462.452	1009
462.581	1021
462.711	1011
462.84	1014
462.97	1007
463.1	1017
463.229	1015
463.359	1017
463.488	1017
463.618	1027
463.747	1016
463.877	1016
464.006	1010
464.136	1015
464.265	1012
464.395	1017
464.524	1017
464.654	1020
464.783	1015
464.913	1017
465.042	1019
465.172	1018
465.301	1013
465.431	1011
465.56	1023
465.69	1017
465.819	1017
465.948	1014
466.078	1022
466.207	1017
466.337	1015
466.466	1015
466.596	1010
466.725	1014
466.854	1018
466.984	1015
467.113	1016
467.243	1016
467.372	1013
467.501	1013
467.631	1017
467.76	1018
467.889	1020
468.019	1017
468.148	1024
468.278	1013
468.407	1018
468.536	1012
468.666	1015
468.795	1016
468.924	1017
469.054	1017
469.183	1015
469.312	1024
469.442	1013
469.571	1018
469.7	1012
469.829	1012
469.959	1015
470.088	1015
470.217	1010
470.347	1023
470.476	1014
470.605	1015
470.734	1019
470.864	1013
470.993	1011
471.122	1019
471.251	1016
471.381	1013
471.51	1017
471.639	1010
471.768	1018
471.898	1019
472.027	1011
472.156	1022
472.285	1023
472.414	1020
472.544	1016
472.673	1022
472.802	1016
472.931	1016
473.06	1015
473.189	1015
473.319	1011
473.448	1013
473.577	1014
473.706	1014
473.835	1022
473.964	1022
474.094	1022
474.223	1019
474.352	1018
474.481	1014
474.61	1019
474.739	1017
474.868	1014
474.997	1017
475.126	1022
475.256	1016
475.385	1020
475.514	1012
475.643	1023
475.772	1024
475.901	1018
476.03	1019
476.159	1020
476.288	1017
476.417	1014
476.546	1023
476.675	1018
476.804	1021
476.933	1016
477.062	1020
477.191	1023
477.32	1017
477.449	1015
477.578	1014
477.707	1021
477.836	1015
477.965	1020
478.094	1012
478.223	1014
478.352	1014
478.481	1012
478.61	1021
478.739	1014
478.868	1017
478.997	1020
479.126	1018
479.255	1016
479.384	1024
479.513	1015
479.642	1023
479.771	1018
479.9	1014
480.028	1024
480.157	1016
480.286	1017
480.415	1013
480.544	1020
480.673	1012
480.802	1023
480.931	1017
481.06	1013
481.188	1020
481.317	1022
481.446	1018
481.575	1025
481.704	1015
481.833	1017
481.961	1017
482.09	1021
482.219	1017
482.348	1024
482.477	1018
482.606	1021
482.734	1018
482.863	1022
482.992	1025
483.121	1020
483.249	1019
483.378	1028
483.507	1023
483.636	1017
483.765	1024
483.893	1017
484.022	1016
484.151	1021
484.28	1013
484.408	1024
484.537	1022
484.666	1018
484.794	1018
484.923	1016
485.052	1018
485.181	1026
485.309	1020
485.438	1024
485.567	1018
485.695	1022
485.824	1022
485.953	1024
486.081	1021
486.21	1022
486.339	1020
486.467	1024
486.596	1022
486.725	1019
486.853	1013
486.982	1022
487.11	1018
487.239	1022
487.368	1017
487.496	1018
487.625	1024
487.754	1023
487.882	1021
488.011	1018
488.139	1024
488.268	1014
488.396	1023
488.525	1023
488.654	1027
488.782	1017
488.911	1018
489.039	1022
489.168	1019
489.296	1021
489.425	1020
489.553	1024
489.682	1029
489.81	1024
489.939	1021
490.067	1020
490.196	1022
490.324	1022
490.453	1024
490.581	1021
490.71	1021
490.838	1021
490.967	1028
491.095	1024
491.224	1024
491.352	1015
491.481	1016
491.609	1030
491.738	1023
491.866	1022
491.994	1025
492.123	1017
492.251	1019
492.38	1021
492.508	1022
492.636	1024
492.765	1021
492.893	1020
493.022	1026
493.15	1020
493.278	1024
493.407	1021
493.535	1017
493.663	1022
493.792	1019
493.92	1013
494.049	1021
494.177	1029
494.305	1027
494.434	1021
494.562	1026
494.69	1020
494.818	1022
494.947	1023
495.075	1017
495.203	1019
495.332	1022
495.46	1016
495.588	1036
495.716	1029
495.845	1020
495.973	1020
496.101	1029
496.23	1024
496.358	1023
496.486	1029
496.614	1017
496.742	1025
496.871	1029
496.999	1024
497.127	1021
497.255	1021
497.384	1023
497.512	1026
497.64	1027
497.768	1021
497.896	1025
498.024	1025
498.153	1021
498.281	1024
498.409	1025
498.537	1021
498.665	1033
498.793	1019
498.922	1017
499.05	1019
499.178	1030
499.306	1018
499.434	1028
499.562	1025
499.69	1025
499.818	1027
499.947	1029
500.075	1015
500.203	1022
500.331	1024
500.459	1025
500.587	1024
500.715	1023
500.843	1021
500.971	1028
501.099	1022
501.227	1026
501.355	1022
501.483	1028
501.611	1029
501.739	1017
501.867	1028
501.995	1022
502.123	1029
502.251	1030
502.379	1022
502.507	1024
502.635	1023
502.763	1031
502.891	1022
503.019	1025
503.147	1028
503.275	1023
503.403	1024
503.531	1019
503.659	1021
503.787	1023
503.915	1022
504.043	1022
504.171	1024
504.299	1028
504.426	1022
504.554	1029
504.682	1023
504.81	1026
504.938	1018
505.066	1026
505.194	1021
505.322	1024
505.449	1022
505.577	1021
505.705	1021
505.833	1028
505.961	1025
506.089	1030
506.217	1024
506.344	1024
506.472	1033
506.6	1017
506.728	1017
506.856	1027
506.983	1032
507.111	1024
507.239	1027
507.367	1022
507.495	1031
507.622	1021
507.75	1022
507.878	1031
508.006	1031
508.133	1027
508.261	1024
508.389	1021
508.516	1020
508.644	1022
508.772	1025
508.9	1023
509.027	1027
509.155	1023
509.283	1027
509.41	1027
509.538	1031
509.666	1027
509.793	1031
509.921	1038
510.049	1023
510.176	1024
510.304	1024
510.432	1018
510.559	1022
510.687	1018
510.815	1023
510.942	1019
511.07	1032
511.197	1023
511.325	1020
511.453	1024
511.58	1027
511.708	1021
511.835	1020
511.963	1027
512.091	1032
512.218	1025
512.346	1033
512.473	1029
512.601	1028
512.728	1026
512.856	1021
512.983	1020
513.111	1029
513.238	1025
513.366	1019
513.494	1030
513.621	1021
513.749	1026
513.876	1027
514.003	1023
514.131	1028
514.258	1022
514.386	1025
514.513	1020
514.641	1027
514.768	1029
514.896	1021
515.023	1020
515.151	1027
515.278	1026
515.405	1014
515.533	1033
515.66	1024
515.788	1023
515.915	1022
516.042	1031
516.17	1021
516.297	1026
516.425	1026
516.552	1021
516.679	1028
516.807	1031
516.934	1029
517.061	1021
517.189	1032
517.316	1023
517.443	1026
517.571	1031
517.698	1026
517.825	1027
517.953	1029
518.08	1024
518.207	1025
518.335	1020
518.462	1028
518.589	1022
518.716	1025
518.844	1027
518.971	1028
519.098	1026
519.226	1031
519.353	1023
519.48	1030
519.607	1028
519.734	1023
519.862	1028
519.989	1027
520.116	1031
520.243	1029
520.371	1026
520.498	1031
520.625	1029
520.752	1027
520.879	1024
521.006	1030
521.134	1024
521.261	1027
521.388	1022
521.515	1026
521.642	1021
521.769	1035
521.896	1026
522.024	1026
522.151	1024
522.278	1035
522.405	1027
522.532	1035
522.659	1027
522.786	1027
522.913	1023
523.04	1031
523.167	1031
523.295	1028
523.422	1024
523.549	1027
523.676	1030
523.803	1029
523.93	1031
524.057	1022
524.184	1024
524.311	1024
524.438	1033
524.565	1030
524.692	1026
524.819	1025
524.946	1028
525.073	1027
525.2	1026
525.327	1025
525.454	1024
525.581	1034
525.708	1026
525.835	1029
525.962	1020
526.088	1025
526.215	1022
526.342	1029
526.469	1027
526.596	1034
526.723	1029
526.85	1028
526.977	1021
527.104	1030
527.231	1033
527.358	1027
527.484	1032
527.611	1025
527.738	1027
527.865	1028
527.992	1029
528.119	1027
528.246	1029
528.372	1033
528.499	1027
528.626	1028
528.753	1022
528.88	1021
529.006	1024
529.133	1026
529.26	1031
529.387	1031
529.514	1033
529.64	1029
529.767	1025
529.894	1026
530.021	1020
530.147	1023
530.274	1024
530.401	1024
530.528	1025
530.654	1028
530.781	1032
530.908	1036
531.034	1017
531.161	1026
531.288	1018
531.414	1019
531.541	1031
531.668	1028
531.795	1025
531.921	1026
532.048	1033
532.174	1023
532.301	1028
532.428	1031
532.554	1026
532.681	1023
532.808	1034
532.934	1029
533.061	1026
533.187	1034
533.314	1026
533.441	1032
533.567	1036
533.694	1031
533.82	1021
533.947	1024
534.074	1027
534.2	1026
534.327	1027
534.453	1025
534.58	1025
534.706	1030
534.833	1034
534.959	1028
535.086	1028
535.212	1026
535.339	1030
535.465	1021
535.592	1040
535.718	1030
535.845	1027
535.971	1028
536.098	1034
536.224	1022
536.351	1033
536.477	1037
536.604	1029
536.73	1034
536.856	1026
536.983	1026
537.109	1028
537.236	1025
537.362	1026
537.488	1032
537.615	1028
537.741	1037
537.868	1027
537.994	1030
538.12	1032
538.247	1037
538.373	1027
538.499	1025
538.626	1024
538.752	1033
538.878	1032
539.005	1025
539.131	1026
539.257	1029
539.384	1029
539.51	1027
539.636	1026
539.763	1033
539.889	1023
540.015	1028
540.141	1028
540.268	1027
540.394	1030
540.52	1031
540.646	1023
540.773	1025
540.899	1023
541.025	1022
541.151	1032
541.278	1038
541.404	1032
541.53	1035
541.656	1030
541.782	1035
541.909	1035
542.035	1032
542.161	1034
542.287	1027
542.413	1028
542.539	1033
542.665	1032
542.792	1022
542.918	1036
543.044	1031
543.17	1023
543.296	1034
543.422	1034
543.548	1031
543.674	1037
543.801	1029
543.927	1025
544.053	1024
544.179	1034
544.305	1034
544.431	1031
544.557	1026
544.683	1028
544.809	1023
544.935	1030
545.061	1034
545.187	1031
545.313	1031
545.439	1031
545.565	1032
545.691	1031
545.817	1037
545.943	1031
546.069	1029
546.195	1033
546.321	1029
546.447	1033
546.573	1030
546.699	1023
546.825	1031
546.951	1024
547.077	1035
547.203	1028
547.329	1031
547.454	1023
547.58	1026
547.706	1034
547.832	1025
547.958	1021
548.084	1029
548.21	1023
548.336	1027
548.462	1027
548.587	1027
548.713	1028
548.839	1027
548.965	1027
549.091	1028
549.217	1028
549.342	1041
549.468	1027
549.594	1019
549.72	1031
549.846	1028
549.971	1034
550.097	1032
550.223	1024
550.349	1030
550.474	1026
550.6	1036
550.726	1031
550.852	1027
550.977	1028
551.103	1027
551.229	1036
551.355	1027
551.48	1030
551.606	1029
551.732	1027
551.857	1021
551.983	1032
552.109	1035
552.234	1027
552.36	1033
552.486	1046
552.611	1030
552.737	1025
552.863	1032
552.988	1042
553.114	1026
553.24	1030
553.365	1030
553.491	1039
553.616	1031
553.742	1025
553.868	1025
553.993	1033
554.119	1019
554.244	1030
554.37	1032
554.495	1034
554.621	1023
554.746	1035
554.872	1027
554.998	1032
555.123	1028
555.249	1033
555.374	1027
555.5	1027
555.625	1025
555.751	1036
555.876	1026
556.002	1030
556.127	1027
556.252	1028
556.378	1038
556.503	1032
556.629	1026
556.754	1034
556.88	1034
557.005	1031
557.131	1037
557.256	1026
557.381	1027
557.507	1024
557.632	1030
557.758	1030
557.883	1029
558.008	1024
558.134	1030
558.259	1031
558.384	1031
558.51	1028
558.635	1032
558.76	1033
558.886	1026
559.011	1030
559.136	1028
559.262	1036
559.387	1033
559.512	1035
559.638	1029
559.763	1029
559.888	1028
560.013	1030
560.139	1033
560.264	1033
560.389	1028
560.514	1029
560.64	1031
560.765	1027
560.89	1034
561.015	1032
561.141	1031
561.266	1023
561.391	1033
561.516	1024
561.641	1035
561.767	1031
561.892	1035
562.017	1029
562.142	1034
562.267	1025
562.392	1029
562.518	1030
562.643	1031
562.768	1027
562.893	1034
563.018	1029
563.143	1034
563.268	1024
563.393	1026
563.518	1026
563.644	1038
563.769	1028
563.894	1032
564.019	1036
564.144	1030
564.269	1033
564.394	1027
564.519	1031
564.644	1037
564.769	1032
564.894	1022
565.019	1036
565.144	1036
565.269	1033
565.394	1032
565.519	1030
565.644	1026
565.769	1033
565.894	1032
566.019	1031
566.144	1033
566.269	1032
566.394	1032
566.519	1039
566.644	1045
566.769	1026
566.893	1033
567.018	1034
567.143	1026
567.268	1036
567.393	1027
567.518	1030
567.643	1028
567.768	1034
567.893	1027
568.017	1040
568.142	1031
568.267	1027
568.392	1035
568.517	1036
568.642	1026
568.766	1032
568.891	1032
569.016	1018
569.141	1032
569.266	1032
569.39	1037
569.515	1026
569.64	1027
569.765	1033
569.889	1028
570.014	1028
570.139	1037
570.264	1029
570.388	1026
570.513	1029
570.638	1025
570.762	1028
570.887	1027
571.012	1028
571.137	1035
571.261	1034
571.386	1025
571.511	1027
571.635	1032
571.76	1028
571.885	1032
572.009	1029
572.134	1027
572.258	1024
572.383	1030
572.508	1030
572.632	1028
572.757	1034
572.881	1028
573.006	1029
573.131	1023
573.255	1034
573.38	1032
573.504	1030
573.629	1022
573.753	1029
573.878	1024
574.003	1027
574.127	1034
574.252	1034
574.376	1026
574.501	1031
574.625	1031
574.75	1030
574.874	1031
574.999	1034
575.123	1030
575.248	1033
575.372	1035
575.496	1039
575.621	1028
575.745	1031
575.87	1043
575.994	1027
576.119	1036
576.243	1024
576.367	1036
576.492	1028
576.616	1029
576.741	1031
576.865	1032
576.989	1036
577.114	1036
577.238	1032
577.362	1030
577.487	1028
577.611	1036
577.735	1035
577.86	1030
577.984	1025
578.108	1034
578.233	1032
578.357	1023
578.481	1034
578.606	1035
578.73	1031
578.854	1034
578.978	1032
578.977	1026
579.106	1030
579.234	1028
579.362	1020
579.491	1030
579.619	1032
579.747	1020
579.875	1028
580.004	1030
580.132	1026
580.26	1024
580.388	1024
580.517	1027
580.645	1023
580.773	1025
580.901	1032
581.03	1026
581.158	1030
581.286	1031
581.414	1022
581.542	1025
581.671	1030
581.799	1024
581.927	1029
582.055	1025
582.183	1024
582.312	1024
582.44	1035
582.568	1027
582.696	1032
582.824	1024
582.952	1033
583.08	1031
583.209	1022
583.337	1029
583.465	1029
583.593	1033
583.721	1031
583.849	1031
583.977	1022
584.105	1029
584.233	1031
584.362	1027
584.49	1035
584.618	1030
584.746	1025
584.874	1023
585.002	1032
585.13	1029
585.258	1030
585.386	1035
585.514	1031
585.642	1024
585.77	1027
585.898	1033
586.026	1023
586.154	1028
586.282	1023
586.41	1036
586.538	1031
586.666	1033
586.794	1033
586.922	1036
587.05	1028
587.178	1033
587.306	1035
587.434	1037
587.562	1028
587.69	1028
587.818	1034
587.946	1031
588.074	1027
588.202	1032
588.33	1029
588.458	1032
588.586	1025
588.714	1033
588.842	1038
588.97	1036
589.097	1025
589.225	1034
589.353	1030
589.481	1039
589.609	1031
589.737	1040
589.865	1039
589.993	1026
590.121	1038
590.248	1027
590.376	1035
590.504	1043
590.632	1037
590.76	1039
590.888	1039
591.015	1031
591.143	1034
591.271	1046
591.399	1044
591.527	1035
591.655	1039
591.782	1036
591.91	1039
592.038	1044
592.166	1032
592.294	1036
592.421	1047
592.549	1041
592.677	1038
592.805	1050
592.932	1039
593.06	1041
593.188	1033
593.316	1034
593.443	1045
593.571	1043
593.699	1041
593.826	1037
593.954	1047
594.082	1044
594.21	1053
594.337	1038
594.465	1042
594.593	1039
594.72	1043
594.848	1043
594.976	1044
595.103	1040
595.231	1052
595.359	1044
595.486	1036
595.614	1043
595.742	1051
595.869	1046
595.997	1047
596.124	1050
596.252	1045
596.38	1055
596.507	1044
596.635	1044
596.763	1044
596.89	1034
597.018	1039
597.145	1048
597.273	1049
597.4	1051
597.528	1045
597.656	1047
597.783	1061
597.911	1055
598.038	1039
598.166	1051
598.293	1046
598.421	1046
598.548	1053
598.676	1043
598.803	1055
598.931	1045
599.058	1059
599.186	1052
599.313	1052
599.441	1052
599.568	1058
599.696	1056
599.823	1047
599.951	1055
600.078	1041
600.206	1065
600.333	1055
600.461	1057
600.588	1057
600.715	1053
600.843	1063
600.97	1058
601.098	1060
601.225	1050
601.353	1060
601.48	1056
601.607	1045
601.735	1051
601.862	1059
601.99	1064
602.117	1059
602.244	1061
602.372	1063
602.499	1068
602.626	1071
602.754	1058
602.881	1065
603.008	1062
603.136	1065
603.263	1079
603.39	1066
603.518	1059
603.645	1056
603.772	1059
603.9	1069
604.027	1079
604.154	1072
604.281	1065
604.409	1070
604.536	1075
604.663	1064
604.791	1066
604.918	1073
605.045	1067
605.172	1080
605.3	1068
605.427	1066
605.554	1078
605.681	1078
605.809	1080
605.936	1080
606.063	1068
606.19	1082
606.317	1082
606.445	1073
606.572	1080
606.699	1074
606.826	1071
606.953	1080
607.08	1075
607.208	1084
607.335	1077
607.462	1067
607.589	1069
607.716	1077
607.843	1081
607.97	1072
608.098	1078
608.225	1079
608.352	1076
608.479	1071
608.606	1071
608.733	1082
608.86	1084
608.987	1085
609.114	1103
609.241	1098
609.369	1096
609.496	1093
609.623	1085
609.75	1090
609.877	1099
610.004	1073
610.131	1089
610.258	1084
610.385	1092
610.512	1092
610.639	1087
610.766	1095
610.893	1088
611.02	1091
611.147	1083
611.274	1096
611.401	1092
611.528	1112
611.655	1094
611.782	1086
611.909	1098
612.036	1101
612.163	1096
612.29	1103
612.417	1095
612.543	1104
612.67	1109
612.797	1106
612.924	1094
613.051	1094
613.178	1102
613.305	1103
613.432	1108
613.559	1097
613.686	1105
613.813	1098
613.939	1111
614.066	1102
614.193	1109
614.32	1107
614.447	1105
614.574	1118
614.701	1127
614.827	1111
614.954	1122
615.081	1103
615.208	1104
615.335	1120
615.461	1116
615.588	1119
615.715	1110
615.842	1137
615.969	1130
616.095	1120
616.222	1116
616.349	1126
616.476	1124
616.602	1113
616.729	1137
616.856	1135
616.983	1125
617.109	1113
617.236	1126
617.363	1139
617.49	1130
617.616	1121
617.743	1130
617.87	1122
617.996	1135
618.123	1125
618.25	1132
618.376	1139
618.503	1127
618.63	1128
618.756	1123
618.883	1138
619.01	1138
619.136	1133
619.263	1137
619.39	1129
619.516	1154
619.643	1144
619.769	1127
619.896	1122
620.023	1148
620.149	1144
620.276	1132
620.402	1130
620.529	1139
620.656	1154
620.782	1137
620.909	1153
621.035	1152
621.162	1154
621.288	1155
621.415	1155
621.541	1148
621.668	1162
621.795	1155
621.921	1156
622.048	1148
622.174	1163
622.301	1165
622.427	1156
622.554	1176
622.68	1149
622.807	1168
622.933	1186
623.059	1165
623.186	1153
623.312	1172
623.439	1168
623.565	1176
623.692	1178
623.818	1172
623.945	1178
624.071	1166
624.197	1177
624.324	1180
624.45	1185
624.577	1165
624.703	1189
624.829	1175
624.956	1192
625.082	1192
625.209	1185
625.335	1182
625.461	1188
625.588	1181
625.714	1183
625.84	1187
625.967	1196
626.093	1188
626.219	1196
626.346	1182
626.472	1199
626.598	1194
626.725	1179
626.851	1177
626.977	1213
627.103	1198
627.23	1220
627.356	1214
627.482	1214
627.608	1205
627.735	1221
627.861	1219
627.987	1203
628.113	1195
628.24	1210
628.366	1215
628.492	1229
628.618	1215
628.745	1218
628.871	1220
628.997	1223
629.123	1215
629.249	1222
629.376	1238
629.502	1242
629.628	1224
629.754	1243
629.88	1231
630.006	1229
630.132	1214
630.259	1231
630.385	1242
630.511	1235
630.637	1238
630.763	1228
630.889	1230
631.015	1237
631.141	1248
631.268	1256
631.394	1257
631.52	1239
631.646	1272
631.772	1254
631.898	1251
